File: a.mpt
EC-Lab ASCII FILE
Nb header lines : 50

Open Circuit Voltage

Run on channel : 3 (SN 4895)
User :
Electrode connection : standard
Ewe ctrl range : min = -10.00 V, max = 10.00 V
Ewe,I filtering : 50 kHz
Safety Limits :
	Do not start on E overload
Channel : Grounded
Acquisition started on : 06/04/2018 12:45:52
Technique started on : 06/04/2018 12:45:52
Saved on :
	File : GF201805_21_01_OCV.mpr
	Directory : C:\Users\L004\Documents\EC-Lab\Data\2018\06 June\04June_Erdem_NO3R\
	Host : 192.109.209.127
Device : VMP-300 (SN 0241)
Address : 192.109.209.128
EC-Lab for windows v11.12 (software)
Internet server v11.12 (firmware)
Command interpretor v11.12 (firmware)
Electrode material : 201805_21
Initial state : 500rpm stirring - N2 blanket
Electrolyte : 30mM NaClO4 100ppm NaNO3
Comments : Vacuum in 90mL
Comments : 1 g/L GO 70% 130ºC 8h
Current amplifier : B-2A30V
Cable : special
Reference electrode : Ag/AgCl Ref #7 (0.208 V)
Electrode surface area : 2.000 cm²
Characteristic mass : 1.000 g
Equivalent Weight : 0.000 g/eq.
Density : 0.000 g/cm3
Record Ece
Text export
Cycle Definition : Charge/Discharge alternance
tR (h:m:s)          0:00:10.0000
dER/dt (mV/h)       0.0
dER (mV)            0.00
dtR (s)             0.5000
E range min (V)     -10.000
E range max (V)     10.000

Number of loops : 1
Loop 0 from point number 0 to 20

mode	error	time/s	Ewe/V	Ece/V	Rcmp/Ohm	Ewe-Ece/V
3	1	0.000000000000000E+000	0.174253	0.656478	0.0000000E+000	-0.482225
3	0	0.5	0.174307	0.656375	0.0000000E+000	-0.482069
3	0	1	0.174196	0.65641	0.0000000E+000	-0.482214
3	0	1.5	0.174276	0.656169	0.0000000E+000	-0.481893
3	0	2	0.17428	0.656272	0.0000000E+000	-0.481992
3	0	2.5	0.174127	0.656272	0.0000000E+000	-0.482145
3	0	3	0.174192	0.656272	0.0000000E+000	-0.48208
3	0	3.5	0.1742	0.65641	0.0000000E+000	-0.48221
3	0	4	0.174203	0.656203	0.0000000E+000	-0.482
3	0	4.5	0.174192	0.656478	0.0000000E+000	-0.482286
3	0	5	0.174116	0.656238	0.0000000E+000	-0.482122
3	0	5.5	0.174215	0.65641	0.0000000E+000	-0.482195
3	0	6	0.174299	0.656581	0.0000000E+000	-0.482282
3	0	6.5	0.174261	0.656581	0.0000000E+000	-0.482321
3	0	7	0.174421	0.656616	0.0000000E+000	-0.482195
3	0	7.5	0.174345	0.656581	0.0000000E+000	-0.482237
3	0	8	0.174196	0.656375	0.0000000E+000	-0.482179
3	0	8.5	0.174184	0.65641	0.0000000E+000	-0.482225
3	0	9	0.174318	0.656753	0.0000000E+000	-0.482435
3	0	9.5	0.174276	0.656685	0.0000000E+000	-0.482408
3	0	9.9998	0.174268	0.6561	0.0000000E+000	-0.481832