File: d.mpt
EC-Lab ASCII FILE
Nb header lines : 65

IR compensation (PEIS)

Run on channel : 3 (SN 4895)
User :
Electrode connection : standard
Ewe ctrl range : min = -10.00 V, max = 10.00 V
Ewe,I filtering : 50 kHz
Safety Limits :
	Do not start on E overload
Channel : Grounded
Acquisition started on : 06/04/2018 12:45:52
Technique started on : 06/04/2018 12:48:16
Saved on :
	File : GF201805_21_04_ZIR.mpr
	Directory : C:\Users\L004\Documents\EC-Lab\Data\2018\06 June\04June_Erdem_NO3R\
	Host : 192.109.209.127
Device : VMP-300 (SN 0241)
Address : 192.109.209.128
EC-Lab for windows v11.12 (software)
Internet server v11.12 (firmware)
Command interpretor v11.12 (firmware)
Electrode material : 201805_21
Initial state : 500rpm stirring - N2 blanket
Electrolyte : 30mM NaClO4 100ppm NaNO3
Comments : Vacuum in 90mL
Comments : 1 g/L GO 70% 130ºC 8h
Current amplifier : B-2A30V
Cable : special
Reference electrode : Ag/AgCl Ref #7 (0.208 V)
Electrode surface area : 2.000 cm²
Characteristic mass : 1.000 g
Equivalent Weight : 0.000 g/eq.
Density : 0.000 g/cm3
Record Ece
Text export
Cycle Definition : Charge/Discharge alternance
E (V)               0.0000
vs.                 Eoc
f                   10.000
unit f              kHz
Va (mV)             20.0
pw                  0.10
Na                  4
E range min (V)     -10.000
E range max (V)     10.000
I Range             100 mA
Bandwidth           5
comp. level (%)     50
use results         0
comp. mode          Software

Number of loops : 8
Loop 0 from point number 0 to 0
Loop 1 from point number 1 to 1
Loop 2 from point number 2 to 2
Loop 3 from point number 3 to 3
Loop 4 from point number 4 to 4
Loop 5 from point number 5 to 5
Loop 6 from point number 6 to 6
Loop 7 from point number 7 to 7

freq/Hz	Re(Z)/Ohm	-Im(Z)/Ohm	|Z|/Ohm	Phase(Z)/deg	time/s	<Ewe>/V	<I>/mA	I Range	|Ewe|/V	|I|/A	<Ece>/V	|Ece|/V	Phase(Zce)/deg	|Zce|/Ohm	Re(Zce)/Ohm	-Im(Zce)/Ohm	Phase(Zwe-ce)/deg	|Zwe-ce|/Ohm	Re(Zwe-ce)/Ohm	-Im(Zwe-ce)/Ohm	Re(Y)/Ohm-1	Im(Y)/Ohm-1	|Y|/Ohm-1	Phase(Y)/deg
10019.5	13.3222	-9.21902	16.2009	34.6835	144.863	0.174189	-0.3004	38	0.0196547	0.00121318	1.29904	2.77593	-0.548051	2288.14	2288.03	21.8863	-0.31537	2301.39	2301.35	12.6673	0.0507568	-0.035124	0.0617248	-34.6835
10019.5	11.3729	-4.01035	12.0592	19.4239	1946.43	0.175596	0	38	0.0193511	0.00160467	0	1.72002	-0.259136	1071.88	1071.87	4.84786	-0.0442982	1083.24	1083.24	0.837508
10019.5	11.1346	-3.41808	11.6475	17.0653	3748.02	0.175089	0	38	0.018163	0.0015594	0	1.39188	-0.289904	892.576	892.565	4.51622	-0.0696234	903.7	903.699	1.09814
10019.5	10.8066	-3.16067	11.2593	16.303	5549.61	0.17503	0	38	0.0180286	0.00160122	0	1.29564	-0.303246	809.16	809.148	4.28258	-0.0783948	819.956	819.955	1.1219
10019.5	10.729	-3.45987	11.2731	17.8734	7351.18	0.174985	0	38	0.0189859	0.00168418	0	1.37439	-0.314782	816.06	816.047	4.4834	-0.0709307	826.777	826.776	1.02353
10019.5	10.5482	-3.08925	10.9912	16.3238	9152.64	0.175064	0	38	0.0177026	0.00161061	0	1.15405	-0.242561	716.528	716.521	3.03341	0.00440072	727.07	727.07	-0.0558441
10019.5	10.4258	-3.25921	10.9234	17.3598	10954.2	0.174821	0	38	0.0182004	0.00166619	0	1.17717	-0.3182	706.504	706.493	3.92365	-0.0531016	716.919	716.919	0.664439
10019.5	10.2873	-2.95084	10.7022	16.0051	12755.8	0.174838	0	38	0.0185236	0.00173083	0	1.0532	-0.32286	608.495	608.486	3.42884	-0.044261	618.773	618.773	0.478003