File: f.mpt
EC-Lab ASCII FILE
Nb header lines : 50

Open Circuit Voltage

Run on channel : 3 (SN 4895)
User :
Electrode connection : standard
Ewe ctrl range : min = -10.00 V, max = 10.00 V
Ewe,I filtering : 50 kHz
Safety Limits :
	Do not start on E overload
Channel : Grounded
Acquisition started on : 06/04/2018 12:45:52
Technique started on : 06/04/2018 16:48:28
Saved on :
	File : GF201805_21_07_OCV.mpr
	Directory : C:\Users\L004\Documents\EC-Lab\Data\2018\06 June\04June_Erdem_NO3R\
	Host : 192.109.209.127
Device : VMP-300 (SN 0241)
Address : 192.109.209.128
EC-Lab for windows v11.12 (software)
Internet server v11.12 (firmware)
Command interpretor v11.12 (firmware)
Electrode material : 201805_21
Initial state : 500rpm stirring - N2 blanket
Electrolyte : 30mM NaClO4 100ppm NaNO3
Comments : Vacuum in 90mL
Comments : 1 g/L GO 70% 130ºC 8h
Current amplifier : B-2A30V
Cable : special
Reference electrode : Ag/AgCl Ref #7 (0.208 V)
Electrode surface area : 2.000 cm²
Characteristic mass : 1.000 g
Equivalent Weight : 0.000 g/eq.
Density : 0.000 g/cm3
Record Ece
Text export
Cycle Definition : Charge/Discharge alternance
tR (h:m:s)          0:05:0.0000
dER/dt (mV/h)       0.0
dER (mV)            0.00
dtR (s)             0.5000
E range min (V)     -10.000
E range max (V)     10.000

Number of loops : 1
Loop 0 from point number 0 to 600

mode	error	time/s	Ewe/V	Ece/V	Rcmp/Ohm	Ewe-Ece/V
3	0	14556.3	-1.2195	1.45471	0.0000000E+000	-2.67421
3	0	14558.3	-1.03124	1.38544	0.0000000E+000	-2.41668
3	0	14560.3	-0.944225	1.36018	0.0000000E+000	-2.30441
3	0	14562.3	-0.887751	1.3442	0.0000000E+000	-2.23195
3	0	14564.3	-0.839872	1.33249	0.0000000E+000	-2.17236
3	0	14566.3	-0.798093	1.32335	0.0000000E+000	-2.12144
3	0	14568.3	-0.761349	1.31538	0.0000000E+000	-2.07672
3	0	14570.3	-0.729434	1.30823	0.0000000E+000	-2.03766
3	0	14572.3	-0.701712	1.30177	0.0000000E+000	-2.00348
3	0	14574.3	-0.677383	1.296	0.0000000E+000	-1.97338
3	0	14576.3	-0.656076	1.29036	0.0000000E+000	-1.94644
3	0	14578.3	-0.635459	1.28528	0.0000000E+000	-1.92074
3	0	14580.3	-0.616111	1.28057	0.0000000E+000	-1.89668
3	0	14582.3	-0.596603	1.27565	0.0000000E+000	-1.87226
3	0	14584.3	-0.576766	1.27163	0.0000000E+000	-1.8484
3	0	14586.3	-0.557074	1.26772	0.0000000E+000	-1.82479
3	0	14588.3	-0.537795	1.26428	0.0000000E+000	-1.80208
3	0	14590.3	-0.520265	1.26064	0.0000000E+000	-1.7809
3	0	14592.3	-0.503874	1.25741	0.0000000E+000	-1.76128
3	0	14594.3	-0.488743	1.25476	0.0000000E+000	-1.74351
3	0	14596.3	-0.474793	1.2515	0.0000000E+000	-1.72629
3	0	14598.3	-0.461698	1.24885	0.0000000E+000	-1.71055
3	0	14600.3	-0.449581	1.24645	0.0000000E+000	-1.69603
3	0	14602.3	-0.438576	1.24425	0.0000000E+000	-1.68283
3	0	14604.3	-0.428301	1.24208	0.0000000E+000	-1.67039
3	0	14606.3	-0.418842	1.23975	0.0000000E+000	-1.65859
3	0	14608.3	-0.409927	1.23806	0.0000000E+000	-1.64799
3	0	14610.3	-0.401825	1.23648	0.0000000E+000	-1.63831
3	0	14612.3	-0.39412	1.23483	0.0000000E+000	-1.62895
3	0	14614.3	-0.387084	1.23301	0.0000000E+000	-1.6201
3	0	14616.3	-0.380441	1.2316	0.0000000E+000	-1.61205
3	0	14618.3	-0.374016	1.23075	0.0000000E+000	-1.60476
3	0	14620.3	-0.367972	1.22941	0.0000000E+000	-1.59738
3	0	14622.3	-0.362754	1.22848	0.0000000E+000	-1.59123
3	0	14624.3	-0.35775	1.22724	0.0000000E+000	-1.58499
3	0	14626.3	-0.352762	1.22652	0.0000000E+000	-1.57928
3	0	14628.3	-0.347922	1.22545	0.0000000E+000	-1.57338
3	0	14630.3	-0.343716	1.22442	0.0000000E+000	-1.56814
3	0	14632.3	-0.339617	1.2237	0.0000000E+000	-1.56332
3	0	14634.3	-0.335763	1.22284	0.0000000E+000	-1.55861
3	0	14636.3	-0.331828	1.22243	0.0000000E+000	-1.55426
3	0	14638.3	-0.32844	1.2214	0.0000000E+000	-1.54984
3	0	14640.3	-0.324922	1.22054	0.0000000E+000	-1.54546
3	0	14642.3	-0.321511	1.21999	0.0000000E+000	-1.5415
3	0	14644.3	-0.318493	1.21941	0.0000000E+000	-1.5379
3	0	14646.3	-0.315257	1.21906	0.0000000E+000	-1.53432
3	0	14648.3	-0.312236	1.21889	0.0000000E+000	-1.53113
3	0	14650.3	-0.309665	1.218	0.0000000E+000	-1.52766
3	0	14652.3	-0.306769	1.21796	0.0000000E+000	-1.52473
3	0	14654.3	-0.30405	1.21748	0.0000000E+000	-1.52153
3	0	14656.3	-0.301731	1.21714	0.0000000E+000	-1.51887
3	0	14658.3	-0.299015	1.21686	0.0000000E+000	-1.51588
3	0	14660.3	-0.296952	1.21614	0.0000000E+000	-1.51309
3	0	14662.3	-0.294538	1.2159	0.0000000E+000	-1.51044
3	0	14664.3	-0.292311	1.21587	0.0000000E+000	-1.50818
3	0	14666.3	-0.290558	1.21535	0.0000000E+000	-1.50591
3	0	14668.3	-0.288315	1.21497	0.0000000E+000	-1.50329
3	0	14670.3	-0.286379	1.21494	0.0000000E+000	-1.50132
3	0	14672.3	-0.28435	1.21442	0.0000000E+000	-1.49877
3	0	14674.3	-0.282677	1.21391	0.0000000E+000	-1.49659
3	0	14676.3	-0.280767	1.21384	0.0000000E+000	-1.49461
3	0	14678.3	-0.278903	1.21367	0.0000000E+000	-1.49257
3	0	14680.3	-0.277455	1.21315	0.0000000E+000	-1.49061
3	0	14682.3	-0.275591	1.21319	0.0000000E+000	-1.48878
3	0	14684.3	-0.273834	1.21302	0.0000000E+000	-1.48685
3	0	14686.3	-0.272424	1.21257	0.0000000E+000	-1.48499
3	0	14688.3	-0.270946	1.21264	0.0000000E+000	-1.48358
3	0	14690.3	-0.269269	1.21264	0.0000000E+000	-1.48191
3	0	14692.3	-0.267902	1.21247	0.0000000E+000	-1.48037
3	0	14694.3	-0.266469	1.21229	0.0000000E+000	-1.47876
3	0	14696.3	-0.265186	1.21188	0.0000000E+000	-1.47707
3	0	14698.3	-0.263864	1.21178	0.0000000E+000	-1.47564
3	0	14700.3	-0.262378	1.21178	0.0000000E+000	-1.47416
3	0	14702.3	-0.261255	1.21157	0.0000000E+000	-1.47283
3	0	14704.3	-0.259803	1.21171	0.0000000E+000	-1.47151
3	0	14706.3	-0.258891	1.21123	0.0000000E+000	-1.47012
3	0	14708.3	-0.257515	1.21116	0.0000000E+000	-1.46868
3	0	14710.3	-0.256297	1.21106	0.0000000E+000	-1.46735
3	0	14712.3	-0.255235	1.21099	0.0000000E+000	-1.46622
3	0	14714.3	-0.254242	1.21106	0.0000000E+000	-1.4653
3	0	14716.3	-0.25339	1.21044	0.0000000E+000	-1.46383
3	0	14718.3	-0.251915	1.21078	0.0000000E+000	-1.4627
3	0	14720.3	-0.250976	1.21054	0.0000000E+000	-1.46152
3	0	14722.3	-0.249998	1.21037	0.0000000E+000	-1.46037
3	0	14724.3	-0.24897	1.21016	0.0000000E+000	-1.45913
3	0	14726.3	-0.247992	1.2104	0.0000000E+000	-1.4584
3	0	14728.3	-0.24706	1.21034	0.0000000E+000	-1.4574
3	0	14730.3	-0.245907	1.21034	0.0000000E+000	-1.45624
3	0	14732.3	-0.245051	1.21013	0.0000000E+000	-1.45518
3	0	14734.3	-0.244394	1.20982	0.0000000E+000	-1.45421
3	0	14736.3	-0.243584	1.20955	0.0000000E+000	-1.45313
3	0	14738.3	-0.24253	1.20982	0.0000000E+000	-1.45235
3	0	14740.3	-0.241762	1.20968	0.0000000E+000	-1.45144
3	0	14742.3	-0.24078	1.20979	0.0000000E+000	-1.45057
3	0	14744.3	-0.240093	1.20948	0.0000000E+000	-1.44957
3	0	14746.3	-0.239382	1.20951	0.0000000E+000	-1.44889
3	0	14748.3	-0.238255	1.20985	0.0000000E+000	-1.44811
3	0	14750.3	-0.237824	1.20965	0.0000000E+000	-1.44747
3	0	14752.3	-0.236945	1.20958	0.0000000E+000	-1.44652
3	0	14754.3	-0.236147	1.20948	0.0000000E+000	-1.44562
3	0	14756.3	-0.235646	1.2093	0.0000000E+000	-1.44495
3	0	14758.3	-0.235142	1.20917	0.0000000E+000	-1.44431
3	0	14760.3	-0.234183	1.2091	0.0000000E+000	-1.44328
3	0	14762.3	-0.233637	1.20903	0.0000000E+000	-1.44267
3	0	14764.3	-0.232865	1.20934	0.0000000E+000	-1.4422
3	0	14766.3	-0.232109	1.2092	0.0000000E+000	-1.44131
3	0	14768.3	-0.231566	1.20896	0.0000000E+000	-1.44053
3	0	14770.3	-0.230841	1.20906	0.0000000E+000	-1.4399
3	0	14772.3	-0.230451	1.20886	0.0000000E+000	-1.43931
3	0	14774.3	-0.229775	1.20886	0.0000000E+000	-1.43863
3	0	14776.3	-0.229068	1.20893	0.0000000E+000	-1.43799
3	0	14778.3	-0.22835	1.20896	0.0000000E+000	-1.43731
3	0	14780.3	-0.228186	1.20869	0.0000000E+000	-1.43687
3	0	14782.3	-0.227617	1.20858	0.0000000E+000	-1.4362
3	0	14784.3	-0.226929	1.20862	0.0000000E+000	-1.43555
3	0	14786.3	-0.226425	1.20848	0.0000000E+000	-1.4349
3	0	14788.3	-0.226234	1.20848	0.0000000E+000	-1.43471
3	0	14790.3	-0.225302	1.20865	0.0000000E+000	-1.43395
3	0	14792.3	-0.224863	1.20862	0.0000000E+000	-1.43348
3	0	14794.3	-0.224652	1.20858	0.0000000E+000	-1.43324
3	0	14796.3	-0.223793	1.20862	0.0000000E+000	-1.43241
3	0	14798.3	-0.223411	1.20827	0.0000000E+000	-1.43168
3	0	14800.3	-0.222819	1.20845	0.0000000E+000	-1.43126
3	0	14802.3	-0.222402	1.20872	0.0000000E+000	-1.43112
3	0	14804.3	-0.222062	1.20834	0.0000000E+000	-1.4304
3	0	14806.3	-0.221302	1.20855	0.0000000E+000	-1.42985
3	0	14808.3	-0.221039	1.20834	0.0000000E+000	-1.42938
3	0	14810.3	-0.220534	1.20838	0.0000000E+000	-1.42891
3	0	14812.3	-0.219973	1.20869	0.0000000E+000	-1.42866
3	0	14814.3	-0.219347	1.20872	0.0000000E+000	-1.42807
3	0	14816.3	-0.219446	1.20814	0.0000000E+000	-1.42758
3	0	14818.3	-0.218712	1.20838	0.0000000E+000	-1.42709
3	0	14820.3	-0.218285	1.20841	0.0000000E+000	-1.4267
3	0	14822.3	-0.218315	1.20793	0.0000000E+000	-1.42625
3	0	14824.3	-0.217635	1.20796	0.0000000E+000	-1.4256
3	0	14826.3	-0.217089	1.20834	0.0000000E+000	-1.42543
3	0	14828.3	-0.216909	1.20793	0.0000000E+000	-1.42484
3	0	14830.3	-0.216504	1.2079	0.0000000E+000	-1.4244
3	0	14832.3	-0.216084	1.208	0.0000000E+000	-1.42408
3	0	14834.3	-0.215687	1.20807	0.0000000E+000	-1.42375
3	0	14836.3	-0.215404	1.2079	0.0000000E+000	-1.4233
3	0	14838.3	-0.214942	1.2081	0.0000000E+000	-1.42304
3	0	14840.3	-0.214656	1.208	0.0000000E+000	-1.42265
3	0	14842.3	-0.214209	1.20779	0.0000000E+000	-1.422
3	0	14844.3	-0.213643	1.20803	0.0000000E+000	-1.42168
3	0	14846.3	-0.213678	1.20796	0.0000000E+000	-1.42164
3	0	14848.3	-0.212899	1.2081	0.0000000E+000	-1.421
3	0	14850.3	-0.212635	1.20814	0.0000000E+000	-1.42077
3	0	14852.3	-0.212276	1.2082	0.0000000E+000	-1.42048
3	0	14854.3	-0.211848	1.2081	0.0000000E+000	-1.41995
3	0	14855.8	-0.211959	1.20814	0.0000000E+000	-1.4201