File: h.mpt
EC-Lab ASCII FILE
Nb header lines : 65

Cyclic Voltammetry

Run on channel : 3 (SN 4895)
User :
Electrode connection : standard
Ewe ctrl range : min = -10.00 V, max = 10.00 V
Ewe,I filtering : 50 kHz
Safety Limits :
	Do not start on E overload
Channel : Grounded
Acquisition started on : 06/04/2018 12:45:52
Technique started on : 06/04/2018 16:53:29
Saved on :
	File : GF201805_21_09_CV.mpr
	Directory : C:\Users\L004\Documents\EC-Lab\Data\2018\06 June\04June_Erdem_NO3R\
	Host : 192.109.209.127
Device : VMP-300 (SN 0241)
Address : 192.109.209.128
EC-Lab for windows v11.12 (software)
Internet server v11.12 (firmware)
Command interpretor v11.12 (firmware)
Electrode material : 201805_21
Initial state : 500rpm stirring - N2 blanket
Electrolyte : 30mM NaClO4 100ppm NaNO3
Comments : Vacuum in 90mL
Comments : 1 g/L GO 70% 130ºC 8h
Current amplifier : B-2A30V
Cable : special
Reference electrode : Ag/AgCl Ref #7 (0.208 V)
Electrode surface area : 2.000 cm²
Characteristic mass : 1.000 g
Equivalent Weight : 0.000 g/eq.
Density : 0.000 g/cm3
Record Ece
Text export
Cycle Definition : Charge/Discharge alternance
Ei (V)              0.000
vs.                 Eoc
dE/dt               50.000
dE/dt unit          mV/s
E1 (V)              -1.800
vs.                 Ref
Step percent        50
N                   10
E range min (V)     -10.000
E range max (V)     10.000
I Range             100 mA
I Range min         10 nA
I Range max         10 mA
I Range init        100 nA
Bandwidth           5
E2 (V)              1.200
vs.                 Ref
nc cycles           2
Reverse Scan        1
Ef (V)              0.000
vs.                 Eoc

Number of loops : 1
Loop 0 from point number 0 to 5031

mode	ox/red	error	control changes	counter inc.	time/s	control/V	Ewe/V	<I>/mA	cycle number	(Q-Qo)/C	<Ece>/V	Rcmp/Ohm	P/W	Ewe-Ece/V
2	0	0	0	0	14857.3	-0.211798	-0.211507	0.000325738	1	0.0000000E+000	1.21164	0.0000000E+000	-6.88956e-08	-1.42315
2	0	0	1	0	14860.7	-0.380309	-0.380156	-0.767213	1	-0.00191403	1.86747	0.0000000E+000	0.000291661	-2.24763
2	0	0	0	0	14864.1	-0.550321	-0.550148	-1.11264	1	-0.00518786	2.04584	0.0000000E+000	0.000612115	-2.59599
2	0	0	1	0	14867.5	-0.720332	-0.720238	-1.55908	1	-0.00961508	2.25831	0.0000000E+000	0.00112291	-2.97854
2	0	0	0	0	14870.9	-0.89034	-0.890208	-2.06433	1	-0.0159138	2.48685	0.0000000E+000	0.00183768	-3.37706
2	0	0	1	0	14874.3	-1.06035	-1.06028	-2.342	1	-0.0234121	2.60573	0.0000000E+000	0.00248318	-3.66601
2	0	0	0	0	14877.7	-1.23036	-1.23023	-3.23946	1	-0.0326081	2.99205	0.0000000E+000	0.00398529	-4.22228
2	0	0	0	0	14881.1	-1.40038	-1.40019	-6.6485	1	-0.0483145	4.41722	0.0000000E+000	0.00930914	-5.81741
2	0	0	1	0	14884.5	-1.57039	-1.57013	-13.6399	1	-0.081945	7.21673	0.0000000E+000	0.0214164	-8.78686
2	0	0	0	0	14887.9	-1.7404	-1.74011	-23.3956	1	-0.144263	10.9443	0.0000000E+000	0.040711	-12.6844
2	1	0	0	0	14891.2	-1.69473	-1.69465	-19.7973	1	-0.223694	9.429	0.0000000E+000	0.0335495	-11.1236
2	1	0	0	0	14894.6	-1.52471	-1.52463	-10.1477	1	-0.273631	5.67386	0.0000000E+000	0.0154714	-7.19848
2	1	0	1	0	14898	-1.3547	-1.3546	-4.20596	1	-0.296895	3.31401	0.0000000E+000	0.00569739	-4.6686
2	1	0	0	0	14901.4	-1.18469	-1.18456	-1.5588	1	-0.305983	2.21658	0.0000000E+000	0.00184649	-3.40113
2	1	0	1	0	14904.8	-1.01468	-1.01449	-0.568997	1	-0.309316	1.76904	0.0000000E+000	0.000577239	-2.78352
2	1	0	0	0	14908.2	-0.844673	-0.844495	-0.100046	1	-0.310308	1.4999	0.0000000E+000	8.44886e-05	-2.34439
2	1	0	1	0	14911.6	-0.674662	-0.674474	0.179896	1	-0.310221	1.19625	0.0000000E+000	-0.000121335	-1.87073
2	1	0	0	0	14915	-0.504654	-0.504502	0.536572	1	-0.308937	0.581269	0.0000000E+000	-0.000270701	-1.08577
2	1	0	1	0	14918.4	-0.334643	-0.334416	0.854374	1	-0.306554	0.188495	0.0000000E+000	-0.000285716	-0.522911
2	1	0	1	0	14921.8	-0.164625	-0.164441	1.12384	1	-0.303147	-0.108845	0.0000000E+000	-0.000184805	-0.0555956
2	1	0	0	0	14925.2	0.00538609	0.00564863	1.33077	1	-0.298959	-0.288964	0.0000000E+000	7.51702e-06	0.294613
2	1	0	1	0	14928.6	0.175397	0.175727	1.69959	1	-0.293886	-0.47909	0.0000000E+000	0.000298663	0.654817
2	1	0	0	0	14932	0.345405	0.345732	2.32643	1	-0.287106	-0.843993	0.0000000E+000	0.000804323	1.18973
2	1	0	1	0	14935.4	0.515416	0.515773	3.29815	1	-0.277659	-1.49691	0.0000000E+000	0.0017011	2.01269
2	1	0	0	0	14938.8	0.685427	0.685722	4.94264	1	-0.263897	-2.78008	0.0000000E+000	0.00338928	3.4658
2	1	0	1	0	14942.2	0.855435	0.855589	8.39321	1	-0.242083	-5.85942	0.0000000E+000	0.00718114	6.71501
2	1	0	0	0	14945.6	1.02545	1.02541	15.9325	1	-0.201991	-13.8693	0.0000000E+000	0.0163373	14.8947
2	1	0	1	0	14949	1.19546	1.1949	26.9617	1	-0.129562	-30.1995	0.0000000E+000	0.0322164	31.3944
2	0	0	0	1	14952.3	1.03812	1.03887	15.8875	1	-0.0574447	-21.9055	0.0000000E+000	0.0165051	22.9443
2	0	0	1	1	14955.7	0.868109	0.868812	5.71778	1	-0.0215401	-8.93942	0.0000000E+000	0.00496768	9.80823
2	0	0	0	1	14959.1	0.698098	0.698439	0.695309	1	-0.0127681	-0.51147	0.0000000E+000	0.000485631	1.20991
2	0	0	0	1	14962.5	0.52808	0.528231	0.0191456	1	-0.0118243	0.54708	0.0000000E+000	1.01133e-05	-0.0188481
2	0	0	1	1	14965.9	0.358069	0.358241	-0.271253	1	-0.0123042	1.04665	0.0000000E+000	-9.7174e-05	-0.68841
2	0	0	0	1	14969.3	0.18806	0.188151	-0.466178	1	-0.0135714	1.45887	0.0000000E+000	-8.77119e-05	-1.27072
2	0	0	1	1	14972.7	0.0180503	0.0181527	-0.639349	1	-0.0154556	1.87287	0.0000000E+000	-1.16059e-05	-1.85472
2	0	0	0	1	14976.1	-0.151961	-0.151882	-0.82962	1	-0.0179433	2.37067	0.0000000E+000	0.000126004	-2.52255
2	0	0	0	1	14979.4	-0.317305	-0.31718	-1.14282	2	-0.0211378	2.84042	0.0000000E+000	0.000362481	-3.1576
2	0	0	0	1	14982.8	-0.48732	-0.487273	-2.03318	2	-0.0264505	3.93562	0.0000000E+000	0.000990715	-4.42289
2	0	0	1	1	14986.2	-0.657331	-0.657227	-2.96982	2	-0.0348226	4.83809	0.0000000E+000	0.00195185	-5.49532
2	0	0	0	1	14989.6	-0.827339	-0.827318	-4.37955	2	-0.0473834	6.01493	0.0000000E+000	0.00362328	-6.84225
2	0	0	1	1	14993	-0.99735	-0.997316	-5.06203	2	-0.0636991	6.26328	0.0000000E+000	0.00504844	-7.2606
2	0	0	0	1	14996.4	-1.16736	-1.16736	-5.34289	2	-0.081504	6.0738	0.0000000E+000	0.00623705	-7.24115
2	0	0	1	1	14999.8	-1.33737	-1.33731	-6.0737	2	-0.100613	6.21983	0.0000000E+000	0.00812242	-7.55714
2	0	0	0	1	15003.2	-1.50738	-1.5072	-9.26526	2	-0.125563	8.05631	0.0000000E+000	0.0139646	-9.56351
2	0	0	1	1	15006.6	-1.67739	-1.67714	-17.1549	2	-0.169185	12.3657	0.0000000E+000	0.0287713	-14.0428
2	1	0	1	1	15009.9	-1.75806	-1.75811	-22.2062	2	-0.240541	13.9848	0.0000000E+000	0.039041	-15.7429
2	1	0	0	1	15013.3	-1.58805	-1.588	-11.973	2	-0.297999	7.89582	0.0000000E+000	0.0190132	-9.48382
2	1	0	1	1	15016.7	-1.41804	-1.4179	-4.91297	2	-0.325507	4.09133	0.0000000E+000	0.00696611	-5.50924
2	1	0	0	1	15020.1	-1.24803	-1.24786	-1.81792	2	-0.335997	2.4248	0.0000000E+000	0.0022685	-3.67265
2	1	0	1	1	15023.5	-1.07802	-1.07789	-0.83948	2	-0.340205	1.87418	0.0000000E+000	0.000904864	-2.95206
2	1	0	0	1	15026.9	-0.908014	-0.907852	-0.418226	2	-0.3423	1.61514	0.0000000E+000	0.000379687	-2.52299
2	1	0	1	1	15030.3	-0.738003	-0.737863	0.0214827	2	-0.342966	1.22548	0.0000000E+000	-1.58513e-05	-1.96334
2	1	0	1	1	15033.7	-0.567985	-0.567807	0.513523	2	-0.342063	0.600512	0.0000000E+000	-0.000291582	-1.16832
2	1	0	0	1	15037.1	-0.397974	-0.397814	0.877176	2	-0.339683	0.00910348	0.0000000E+000	-0.000348953	-0.406918
2	1	0	1	1	15040.5	-0.227963	-0.227731	1.18101	2	-0.336137	-0.255364	0.0000000E+000	-0.000268954	0.027633
2	1	0	0	1	15043.9	-0.0579548	-0.0577046	1.27317	2	-0.331907	-0.325242	0.0000000E+000	-7.3468e-05	0.267537
2	1	0	1	1	15047.3	0.112056	0.112344	1.31977	2	-0.327511	-0.375801	0.0000000E+000	0.000148269	0.488145
2	1	0	0	1	15050.7	0.282068	0.282347	1.55333	2	-0.322701	-0.560679	0.0000000E+000	0.000438577	0.843026
2	1	0	1	1	15054.1	0.452075	0.452433	2.13993	2	-0.316526	-1.02933	0.0000000E+000	0.000968174	1.48176
2	1	0	0	1	15057.5	0.622086	0.622386	3.23304	2	-0.307573	-1.98608	0.0000000E+000	0.0020122	2.60847
2	1	0	1	1	15060.9	0.792098	0.792236	5.57256	2	-0.293286	-4.49412	0.0000000E+000	0.00441478	5.28635
2	1	0	1	1	15064.3	0.962115	0.961928	12.6631	2	-0.263817	-12.7442	0.0000000E+000	0.012181	13.7061
2	1	0	0	1	15067.7	1.13213	1.13155	23.598	2	-0.202684	-29.1142	0.0000000E+000	0.0267022	30.2458
2	0	0	0	0	15071.1	1.10145	1.1137	22.249	2	-0.122062	-33.7862	0.0000000E+000	0.0247786	34.8999
2	0	0	0	0	15074.5	0.93144	0.932339	10.3377	2	-0.0684053	-18.4828	0.0000000E+000	0.00963827	19.4151
2	0	0	1	0	15077.9	0.761429	0.762005	1.9766	2	-0.0488526	-3.95847	0.0000000E+000	0.00150618	4.72047
2	0	0	0	0	15081.3	0.591421	0.591575	0.113309	2	-0.0465995	0.328403	0.0000000E+000	6.70309e-05	0.263172
2	0	0	1	0	15084.7	0.42141	0.421499	-0.195342	2	-0.0468206	0.91621	0.0000000E+000	-8.23363e-05	-0.494711
2	0	0	0	0	15088.1	0.251399	0.251478	-0.396983	2	-0.0478483	1.3051	0.0000000E+000	-9.98325e-05	-1.05363
2	0	0	1	0	15091.5	0.0813911	0.0814594	-0.548482	2	-0.0494506	1.64218	0.0000000E+000	-4.4679e-05	-1.56072
2	0	0	0	0	15094.9	-0.0886201	-0.088552	-0.720352	2	-0.0516176	2.06995	0.0000000E+000	6.37886e-05	-2.1585
2	0	0	1	0	15098.2	-0.253971	-0.253899	-0.956117	3	-0.0543791	2.71303	0.0000000E+000	0.000242757	-2.96693
2	0	0	0	0	15101.6	-0.423979	-0.423936	-1.70276	3	-0.0586319	4.06525	0.0000000E+000	0.000721861	-4.48919
2	0	0	1	0	15105	-0.59399	-0.593924	-2.67371	3	-0.0661402	5.43172	0.0000000E+000	0.00158798	-6.02564
2	0	0	0	0	15108.4	-0.764001	-0.763893	-3.9047	3	-0.0771598	6.82056	0.0000000E+000	0.00298277	-7.58446
2	0	0	1	0	15111.8	-0.934009	-0.934064	-4.97974	3	-0.0924504	7.63068	0.0000000E+000	0.00465139	-8.56474
2	0	0	0	0	15115.2	-1.10402	-1.10406	-5.4464	3	-0.110261	7.63043	0.0000000E+000	0.00601313	-8.73448
2	0	0	1	0	15118.6	-1.27403	-1.27398	-5.78933	3	-0.129287	7.49259	0.0000000E+000	0.00737549	-8.76657
2	0	0	1	0	15122	-1.44405	-1.44391	-7.33041	3	-0.151019	8.39411	0.0000000E+000	0.0105845	-9.83802
2	0	0	0	0	15125.4	-1.61406	-1.61375	-12.755	3	-0.18376	11.9708	0.0000000E+000	0.0205834	-13.5845
2	0	0	1	0	15128.8	-1.78407	-1.78376	-22.7937	3	-0.243251	17.5613	0.0000000E+000	0.0406584	-19.345
2	1	0	0	0	15132.1	-1.65139	-1.65144	-14.3827	3	-0.307019	10.6926	0.0000000E+000	0.0237522	-12.344
2	1	0	1	0	15135.5	-1.48138	-1.48128	-6.21747	3	-0.340901	5.35719	0.0000000E+000	0.00920982	-6.83847
2	1	0	0	0	15138.9	-1.31137	-1.31123	-2.30661	3	-0.354186	2.89575	0.0000000E+000	0.0030245	-4.20698
2	1	0	1	0	15142.3	-1.14136	-1.14117	-1.14434	3	-0.359667	2.14872	0.0000000E+000	0.00130589	-3.28989
2	1	0	1	0	15145.7	-0.971345	-0.971151	-0.674245	3	-0.362681	1.83502	0.0000000E+000	0.000654794	-2.80617
2	1	0	0	0	15149.1	-0.801334	-0.801182	-0.254348	3	-0.364268	1.52184	0.0000000E+000	0.000203779	-2.32302
2	1	0	1	0	15152.5	-0.631323	-0.631177	0.253854	3	-0.364314	0.918549	0.0000000E+000	-0.000160227	-1.54973
2	1	0	0	0	15155.9	-0.461315	-0.461173	0.71036	3	-0.362597	0.188482	0.0000000E+000	-0.000327599	-0.649655
2	1	0	1	0	15159.3	-0.291303	-0.29109	1.0762	3	-0.359535	-0.288498	0.0000000E+000	-0.000313272	-0.00259167
2	1	0	0	0	15162.7	-0.121292	-0.121096	1.2493	3	-0.35549	-0.420062	0.0000000E+000	-0.000151285	0.298966
2	1	0	1	0	15166.1	0.0487156	0.0489992	1.2636	3	-0.351204	-0.453367	0.0000000E+000	6.19154e-05	0.502366
2	1	0	0	0	15169.5	0.218727	0.219004	1.37151	3	-0.346787	-0.561835	0.0000000E+000	0.000300365	0.780838
2	1	0	1	0	15172.9	0.388738	0.38906	1.75309	3	-0.341566	-0.906352	0.0000000E+000	0.000682058	1.29541
2	1	0	1	0	15176.3	0.558756	0.559049	2.56666	3	-0.334363	-1.6745	0.0000000E+000	0.00143489	2.23355
2	1	0	0	0	15179.7	0.728767	0.728971	4.1483	3	-0.323313	-3.39039	0.0000000E+000	0.00302399	4.11936
2	1	0	1	0	15183.1	0.898775	0.898717	9.68809	3	-0.30159	-10.1739	0.0000000E+000	0.00870686	11.0726
2	1	0	0	0	15186.5	1.06879	1.06827	19.8856	3	-0.252039	-25.4671	0.0000000E+000	0.0212431	26.5354
2	0	0	1	1	15189.8	1.16479	1.09348	21.4468	3	-0.177143	-33.8171	0.0000000E+000	0.0234516	34.9105
2	0	1	0	1	15192	1.05629	1.06108	19.1694	3	-0.133305	-33.885	0.0000000E+000	0.0203402	34.9461